# $Id: hT1.tab,v 1.1 2006/11/30 12:17:45 colby Exp $
#
# special file for unit testing
#
#  freq   mmosc  mmbck    vop   lgain   pwr(mV)   errv
#| lo  | osctarg | oscbcktarg | vop | lgain | mW | Vop | mmerr |
#| r      | i    | i    | r   | r    | r         | r    | r |
  90.000  31979  26804   9.50  5.10    112.28   0.25
  89.900  31964  26791   9.50  5.10    119.61   0.05
  89.800  31944  26672   9.50  5.10    128.41  -0.31
  89.700  31938  26531   9.50  5.15    136.95  -0.09
  89.600  31910  26365   9.50  5.20    142.28   0.08
  89.500  31897  26147   9.50  5.20    145.26   0.10
  89.400  31882  25892   9.50  5.20    150.54  -0.15
  89.300  31868  25701   9.50  5.25    149.66   0.14
  89.200  31853  25442   9.50  5.30    148.82  -0.22
  89.100  31838  25181   9.50  5.30    144.88   0.26
  89.000  31839  24942   9.50  5.30    134.35   0.11
  88.900  31811  25117   9.50  5.34    126.57   0.07
  88.800  31798  25420   9.50  5.38    125.61  -0.08
  88.700  31781  25566   9.50  5.42    129.23   0.03
  88.600  31757  25532   9.50  5.46    138.48   0.20
  88.500  31734  25254   9.50  5.50    148.48   0.07
  88.400  31724  24930   9.50  5.50    153.91   0.34
  88.300  31699  24561   9.50  5.50    152.79   0.42
  88.200  31691  24473   9.50  5.50    142.45   0.83
  88.100  31674  24586   9.50  5.50    133.94   0.47
  88.000  31661  24836   9.50  5.50    137.84  -0.02
  87.900  31643  24879   9.50  5.50    145.07   0.11
  87.800  31621  24786   9.50  5.50    155.10  -0.17
  87.700  31595  24460   9.50  5.50    161.67   0.13
  87.600  31574  23965   9.50  5.50    165.96  -0.16
  87.500  31568  23652   9.50  5.50    161.05   0.46
  87.400  31554  23577   9.50  5.50    155.44  -0.05
  87.300  31531  23805   9.50  5.50    152.62  -0.16
  87.200  31518  23781   9.50  5.50    158.14  -0.06
  87.100  31490  23427   9.50  5.50    165.52   0.15
  87.000  31476  23244   9.50  5.50    168.02  -0.07
  86.900  31450  22906   9.50  5.50    167.00   0.07
  86.800  31444  22563   9.50  5.50    162.77   0.21
  86.700  31416  22348   9.50  5.50    160.14   0.32
  86.600  31402  22405   9.50  5.50    158.53   0.18
  86.500  31386  22374   9.50  5.50    158.44   0.22
  86.400  31360  22479   9.50  5.50    156.39   0.10
  86.300  31345  22564   9.50  5.50    157.94   0.19
  86.200  31322  22579   9.50  5.50    156.85   0.45
  86.100  31303  22971   9.50  5.50    155.54   0.17
  86.000  31281  23010   9.50  5.50    164.62   0.03
  85.900  31249  22759   9.50  5.50    172.71   0.31
  85.800  31229  22492   9.50  5.50    175.87   0.90
  85.700  31220  22308   9.50  5.50    179.41   1.79
  85.600  31197  22237   9.50  5.50    174.91   2.27
  85.500  31182  22110   9.50  5.50    170.02   2.30
  85.400  31166  22048   9.50  5.50    162.91   1.93
  85.300  31149  22017   9.50  5.50    155.55   0.91
  85.200  31134  21951   9.50  5.50    155.60   1.39
  85.100  31109  21834   9.50  5.50    157.17   1.48
  85.000  31086  21802   9.50  5.50    156.22   1.05
# -- discontinuity in mmbck -- #
  85.000  31086  31500   9.50  5.50    156.22   1.05
  84.900  31055  31516   9.50  5.50    173.86   0.21
  84.800  31025  31547   9.50  5.50    175.58   0.22
  84.700  31011  31667   9.50  5.50    177.58   0.05
  84.600  30982  31660   9.50  5.50    179.99   0.05
  84.500  30963  31603   9.50  5.50    179.33  -0.19
  84.400  30936  31599   9.50  5.50    180.99   0.22
  84.300  30912  31502   9.50  5.50    186.72   0.23
  84.200  30880  31388   9.50  5.50    188.87  -0.02
  84.100  30870  31295   9.50  5.50    190.83   0.21
  84.000  30844  30932   9.50  5.50    197.10  -0.09
  83.900  30810  30514   9.50  5.50    200.21   0.48
  83.800  30797  30130   9.50  5.50    199.12   0.73
  83.700  30775  29666   9.50  5.50    196.05   1.04
  83.600  30767  29360   9.50  5.50    191.14   0.75
  83.500  30745  29476   9.50  5.50    187.34  -0.06
  83.400  30712  29927   9.50  5.50    188.32  -0.05
  83.300  30692  29907   9.50  5.50    193.99   0.24
  83.200  30661  29888   9.50  5.50    200.25   0.26
  83.100  30631  29689   9.50  5.50    205.21   0.15
  83.000  30611  29415   9.50  5.50    205.80   0.15
  82.900  30591  29203   9.50  5.50    207.03   0.84
  82.800  30565  29106   9.50  5.50    212.00   0.37
  82.700  30539  29111   9.50  5.50    216.07   0.30
  82.600  30519  29101   9.50  5.50    220.94   0.06
  82.500  30496  28884   9.50  5.50    220.87   0.52
  82.400  30476  28624   9.50  5.50    223.13   0.46
  82.300  30447  28443   9.50  5.50    223.00   0.51
  82.200  30425  28339   9.50  5.50    221.35   0.57
  82.100  30393  28581   9.50  5.50    226.52   0.27
  82.000  30362  28554   9.50  5.50    229.76   0.14
  81.900  30332  28354   9.50  5.50    234.29   0.22
  81.800  30310  28144   9.50  5.50    235.15   0.04
  81.700  30278  27881   9.50  5.50    238.23   0.28
  81.600  30253  27616   9.50  5.50    241.07   0.39
  81.500  30254  27472   9.50  5.50    231.16   3.05
  81.400  30230  27365   9.50  5.50    231.84   2.97
  81.300  30178  27194   9.50  5.50    243.02  -0.25
  81.200  30155  27002   9.50  5.50    241.91  -0.12
  81.100  30132  26756   9.50  5.50    236.23   0.11
  81.000  30115  26442   9.50  5.50    233.57  -0.01
  80.900  30103  26230   9.50  5.50    224.18   1.55
  80.800  30088  26273   9.50  5.50    220.19   1.59
  80.700  30074  26404   9.50  5.50    216.74   1.00
  80.600  30038  26969   9.50  5.50    220.10   0.08
  80.500  30002  27184   9.50  5.50    232.35   0.31
  80.400  29961  26975   9.50  5.50    244.41  -0.03
  80.300  29925  26612   9.50  5.50    249.58  -0.08
  80.200  29898  26307   9.50  5.50    245.56   0.13
  80.100  29864  25965   9.50  5.50    243.71   0.65
  80.000  29827  25637   9.50  5.50    247.65   0.37
  79.900  29803  25308   9.50  5.50    248.32   0.48
  79.800  29781  24951   9.50  5.50    247.07   1.19
  79.700  29754  24608   9.50  5.50    252.17   1.24
  79.600  29729  24450   9.50  5.50    255.76   0.96
  79.500  29712  24273   9.50  5.50    259.00   0.47
  79.400  29686  24241   9.50  5.50    257.29   0.40
  79.300  29650  24020   9.50  5.50    254.84   0.48
  79.200  29630  23965   9.50  5.50    253.27   0.46
  79.100  29605  23993   9.50  5.50    256.58   0.38
  79.000  29573  24001   9.50  5.50    255.65   0.22
  78.900  29547  24405   9.50  5.50    254.87  -0.04
  78.800  29502  24325   9.50  5.50    259.30   0.10
  78.700  29462  24207   9.50  5.50    259.46   0.40
  78.600  29425  24040   9.50  5.50    252.88  -0.13
  78.500  29386  23560   9.50  5.50    242.94   0.60
  78.400  29357  23164   9.50  5.50    241.85   0.72
  78.300  29321  22799   9.50  5.50    245.12   0.87
  78.200  29290  22521   9.50  5.50    246.11   0.41
  78.100  29265  22184   9.50  5.50    247.56   0.88
  78.000  29242  21882   9.50  5.50    248.54   0.83
  77.900  29225  21662   9.50  5.50    244.85   1.74
  77.800  29203  21566   9.50  5.50    244.97   1.86
  77.700  29170  21590   9.50  5.50    246.98   1.41
  77.600  29139  21615   9.50  5.50    245.35   0.64
  77.500  29098  22185   9.50  5.50    243.47   0.01
  77.400  29046  22122   9.50  5.50    244.60  -0.15
  77.300  29005  21725   9.50  5.50    240.92   0.30
  77.200  28967  21339   9.50  5.50    233.50  -0.16
  77.100  28922  20920   9.50  5.50    231.45   0.00
  77.000  28895  20606   9.50  5.50    234.82  -0.13
  76.900  28861  20438   9.50  5.50    238.84   0.14
  76.800  28823  20269   9.50  5.50    239.30   0.15
  76.700  28788  20296   9.50  5.50    234.94  -0.15
  76.600  28753  20122   9.50  5.50    231.37   0.04
  76.500  28706  19775   9.50  5.50    229.38   0.39
  76.400  28677  19592   9.50  5.50    228.47   0.51
  76.300  28656  19136   9.50  5.50    225.80   1.04
  76.200  28619  19024   9.50  5.50    229.31   0.64
  76.100  28585  18963   9.50  5.50    227.68   0.20
  76.000  28539  18824   9.50  5.50    224.80   0.12
# -- discontinuity in mmbck -- #
  76.000  28539  32224   9.50  5.50    224.80   0.12
  75.900  28509  32178   9.50  5.50    220.71   0.38
  75.800  28453  32097   9.50  5.50    222.99   0.23
  75.700  28411  31795   9.50  5.50    230.76   0.50
  75.600  28373  31695   9.50  5.50    231.54   0.18
  75.500  28321  31528   9.50  5.50    226.29   0.12
  75.400  28291  31275   9.50  5.50    225.65   0.09
  75.300  28247  31128   9.50  5.50    230.30   0.55
  75.200  28204  31016   9.50  5.50    233.48  -0.09
  75.100  28162  30910   9.50  5.50    234.31   0.29
  75.000  28116  30905   9.50  5.50    237.32   0.99
  74.900  28079  30909   9.50  5.50    242.62   0.20
  74.800  28012  30867   9.50  5.50    248.46   0.52
  74.700  27959  30607   9.50  5.50    249.51   0.25
  74.600  27921  30428   9.50  5.50    251.62  -0.05
  74.500  27864  30273   9.50  5.50    253.76   0.12
  74.400  27823  30054   9.50  5.50    254.87   0.40
  74.300  27779  29923   9.50  5.50    262.52   0.39
  74.200  27723  29874   9.50  5.50    265.58   0.29
  74.100  27680  29710   9.50  5.50    263.73   0.07
  74.000  27648  29576   9.50  5.50    267.15   0.46
  73.900  27600  29521   9.50  5.50    271.50   0.32
  73.800  27558  29413   9.50  5.50    274.34   0.27
  73.700  27512  29320   9.50  5.50    276.95   0.51
  73.600  27468  29305   9.50  5.50    277.67   0.28
  73.500  27394  29276   9.50  5.50    285.15   0.12
  73.400  27357  29162   9.50  5.50    278.83   0.53
  73.300  27302  28994   9.50  5.50    274.44  -0.38
  73.200  27255  28868   9.50  5.50    276.45   0.38
  73.100  27204  28824   9.50  5.50    278.09   0.47
  73.000  27154  28702   9.50  5.50    277.48   0.04
  72.900  27086  28660   9.50  5.50    269.31   0.32
  72.800  27020  28498   9.50  5.50    262.59   0.32
  72.700  26978  28383   9.50  5.50    257.80   0.29
  72.600  26916  28184   9.50  5.50    256.67   0.38
  72.500  26890  28116   9.50  5.50    249.75   0.93
  72.400  26856  28090   9.50  5.50    258.11   0.17
  72.300  26807  28054   9.50  5.50    264.84  -0.29
  72.200  26761  27990   9.50  5.50    259.32   0.53
  72.100  26662  27912   9.50  5.50    250.58   0.29
  72.000  26609  27795   9.50  5.50    239.59  -0.11
  71.900  26569  27712   9.50  5.50    240.84   0.26
  71.800  26517  27609   9.50  5.50    238.99   0.45
  71.700  26466  27535   9.50  5.50    242.06   0.49
  71.600  26391  27477   9.50  5.50    250.79   0.13
  71.500  26330  27411   9.50  5.50    248.69   0.26
  71.400  26292  27336   9.50  5.50    238.78   0.47
  71.300  26208  27242   9.50  5.50    231.65   0.45
  71.200  26150  27156   9.50  5.50    226.10   0.50
  71.100  26084  27088   9.50  5.50    229.59   0.34
  71.000  26017  27047   9.50  5.50    227.45   0.18
  70.900  25960  26968   9.50  5.50    223.35  -0.06
  70.800  25896  26845   9.50  5.50    217.58   0.14
  70.700  25821  26783   9.50  5.50    215.44   0.29
  70.600  25765  26712   9.50  5.50    210.17   0.05
  70.500  25688  26628   9.50  5.50    207.61   0.30
  70.400  25629  26582   9.50  5.50    207.14   0.23
  70.300  25566  26502   9.50  5.50    203.53   0.26
  70.200  25501  26448   9.50  5.50    198.43  -0.14
  70.100  25449  26325   9.50  5.50    194.10   0.54
  70.000  25384  26304   9.50  5.50    192.75   0.28
  69.900  25311  26197   9.50  5.50    194.95   0.14
  69.800  25268  26182   9.50  5.50    194.51   0.43
  69.700  25174  26103   9.50  5.50    195.63   0.53
  69.600  25097  26032   9.50  5.50    193.34  -0.05
  69.500  25006  25982   9.50  5.50    191.78   0.42
  69.400  24938  25912   9.50  5.50    186.84   0.45
  69.300  24853  25859   9.50  5.50    181.16   0.03
  69.200  24774  25732   9.50  5.50    176.79   0.29
  69.100  24717  25682   9.50  5.50    177.85   0.43
  69.000  24650  25620   9.50  5.50    179.47   0.17
  68.900  24588  25578   9.50  5.50    176.90  -0.03
  68.800  24525  25493   9.50  5.50    173.69   0.54
  68.700  24435  25434   9.50  5.50    173.35   0.23
  68.600  24327  25391   9.50  5.50    171.39   0.35
  68.500  24269  25346   9.50  5.50    158.65   0.06
  68.400  24204  25225   9.50  5.50    154.36   0.74
  68.300  24143  25141   9.50  5.50    158.17   1.03
  68.200  24090  25113   9.50  5.50    157.28   1.24
  68.100  24017  25083   9.50  5.50    161.99   1.13
  68.000  23925  25123   9.50  5.50    167.58  -0.12
  67.900  23829  25167   9.50  5.50    170.31   0.45
  67.800  23741  25106   9.50  5.50    167.06   0.21
  67.700  23629  25047   9.50  5.50    165.62   0.29
  67.600  23572  25002   9.50  5.50    159.89   0.27
  67.500  23473  24916   9.50  5.50    160.34   0.34
  67.400  23401  24888   9.50  5.50    156.64   0.42
  67.300  23288  24949   9.50  5.50    155.56   0.25
  67.200  23194  24812   9.50  5.50    145.55   0.46
  67.100  23100  24848   9.50  5.50    143.41   0.19
  67.000  23010  24698   9.50  5.50    140.72  -0.04
  66.900  22953  24607   9.50  5.50    140.16   1.03
  66.800  22905  24420   9.50  5.50    138.17   1.93
  66.700  22819  24472   9.50  5.50    138.63   1.50
  66.600  22772  24622   9.50  5.50    132.80   0.61
  66.500  22691  25278   9.50  5.50    128.50   0.40
  66.400  22571  27887   9.50  5.50    136.07   0.18
  66.300  22437  29586   9.50  5.50    133.97   0.88
# -- discontinuity in mmbck -- #
  66.300  22465  18307   9.50  5.50    143.33  -0.29
  66.200  22350  19299   9.50  5.50    146.74  -0.31
  66.100  22205  20628   9.50  5.50    148.22   1.15
  66.000  22095  20960   9.50  5.50    149.44   0.30
  65.900  21982  21194   9.50  5.50    142.07   1.02
  65.800  21912  21143   9.50  5.50    139.13   0.11
  65.700  21826  21213   9.50  5.50    135.82   1.04
  65.600  21765  21084   9.50  5.50    126.52  -0.29
  65.500  21731  20591   9.50  5.50    113.28   0.10
  65.400  21667  20949   9.50  5.50     91.99   0.26
  65.300  21612  21083   9.50  5.50     68.90   0.05
  65.200  21511  21566   9.50  5.50     51.05   0.28
  65.100  21439  21700   9.50  5.50     37.24   0.34
  65.000  21365  21751   9.50  5.50     24.22  -0.10

# for possible future reference, here is the original
# tuning curve deduced from the hand measure values;
# powers were measured with Hughes pwr meter 

#  freq    mmosc  mmbck  vop   lgain pwr(dBm)
#  89.600  32733  25318  9.50  5.00  14.30
#  89.000  32655  25410  9.50  5.00  13.60
#  88.000  32459  24953  9.50  5.00  14.88
#  87.000  32276  23229  9.50  5.00  15.50
#  86.000  32094  21924  9.50  5.00  16.25
#  85.000  31885  31676  9.50  5.00  16.40
#  84.000  31676  30305  9.50  5.00  16.82
#  83.000  31454  29404  9.50  5.00  17.03
#  82.000  31193  28034  9.50  5.00  17.10
#  81.000  30932  26937  9.50  5.00  17.10
#  80.000  30671  25579  9.50  5.00  17.25
#  79.000  30370  24300  9.50  5.00  17.19
#  78.000  30044  22877  9.50  5.00  17.08
#  77.000  29731  21101  9.50  5.00  17.03
#  76.000  29339  19117  9.50  5.00  16.95
#  75.000  28908  17250  9.50  5.00  16.80
#  74.000  28451  15892  9.50  5.00  16.40
#  73.000  27994  14613  9.50  5.00  15.50
#  72.000  27472  13569  9.50  5.00  14.75
#  71.000  26976  23530  9.50  5.00  10.70
#  70.000  26363  23334  9.50  5.00   5.20
#  69.000  25579  25775  9.50  5.00  12.45
